"""
# Onda Corporation
# Hydrophone Preamplifier Calibration Data
#
FILE_NAME AH-2020-20-100-1238_200929.txt
#
AMP_CAL_DATE 29-Sep-2020
AMP_MFG ONDA
AMP_MODEL AH-2020-100
AMP_SN 1238
AMP_GAIN_NOM_DB 20
AMP_BW_NOM_MHZ 100
AMP_OUTPUT_IMP_NOM_OHMS 50
AMP_INPUT_CAP_NOM_PF 7.1
AMP_INPUT_CAP_DATA_TYPE CALIBRATED
AMP_GAIN_UNCERT_DB 0.03
AMP_CAP_UNCERT_PCT 2.5
#
# Calibration Data
# Freq(MHz) Gain(dB) Phase(deg) Cap(pF)
#
DATA_FIELDS 4
DATA_FIELD FREQ_MHZ
DATA_FIELD GAIN_DB
DATA_FIELD PHASE_DEG
DATA_FIELD CAP_PF
#
# End of file header
HEADER_END 0
"""

"""
`Onda_AH2020_1238_20dB`
"""
function calibration(::Val{:Onda_AH2020_1238_20dB})
    return [
        000.0500 18.82 43.83 7.08;
        000.0510 18.84 42.97 7.08;
        000.0520 18.86 42.16 7.08;
        000.0530 18.88 41.38 7.08;
        000.0540 18.90 40.64 7.08;
        000.0550 18.91 39.91 7.08;
        000.0560 18.93 39.22 7.08;
        000.0570 18.95 38.48 7.08;
        000.0580 18.96 37.79 7.08;
        000.0590 18.97 37.20 7.08;
        000.0600 18.99 36.66 7.08;
        000.0610 19.00 36.05 7.08;
        000.0620 19.01 35.44 7.08;
        000.0630 19.01 34.88 7.08;
        000.0640 19.03 34.40 7.08;
        000.0650 19.03 33.91 7.08;
        000.0660 19.04 33.41 7.08;
        000.0670 19.04 32.93 7.08;
        000.0680 19.04 32.48 7.08;
        000.0690 19.05 32.06 7.08;
        000.0700 19.05 31.67 7.08;
        000.0710 19.05 31.29 7.08;
        000.0720 19.06 30.92 7.08;
        000.0730 19.07 30.53 7.08;
        000.0740 19.08 30.14 7.08;
        000.0750 19.08 29.78 7.08;
        000.0760 19.09 29.44 7.08;
        000.0770 19.09 29.14 7.08;
        000.0780 19.10 28.84 7.08;
        000.0790 19.11 28.55 7.08;
        000.0800 19.11 28.27 7.08;
        000.0810 19.12 27.99 7.08;
        000.0820 19.12 27.72 7.08;
        000.0830 19.13 27.45 7.08;
        000.0840 19.14 27.18 7.08;
        000.0850 19.15 26.90 7.08;
        000.0860 19.16 26.67 7.08;
        000.0870 19.17 26.44 7.08;
        000.0880 19.18 26.24 7.08;
        000.0890 19.19 26.04 7.08;
        000.0900 19.20 25.81 7.08;
        000.0910 19.20 25.57 7.08;
        000.0920 19.22 25.31 7.08;
        000.0930 19.23 25.05 7.08;
        000.0940 19.24 24.85 7.08;
        000.0950 19.25 24.68 7.08;
        000.0960 19.26 24.49 7.08;
        000.0970 19.27 24.28 7.08;
        000.0980 19.28 24.06 7.08;
        000.0990 19.28 23.85 7.08;
        000.1000 19.28 23.64 7.08;
        000.1100 19.39 21.80 7.08;
        000.1200 19.46 20.11 7.08;
        000.1300 19.50 18.67 7.08;
        000.1400 19.54 17.37 7.08;
        000.1500 19.57 16.24 7.08;
        000.1600 19.60 15.24 7.08;
        000.1700 19.63 14.39 7.08;
        000.1800 19.65 13.57 7.08;
        000.1900 19.66 12.88 7.08;
        000.2000 19.68 12.25 7.08;
        000.2100 19.69 11.69 7.08;
        000.2200 19.69 11.15 7.08;
        000.2300 19.70 10.64 7.08;
        000.2400 19.72 10.26 7.08;
        000.2500 19.73 9.78 7.08;
        000.2600 19.73 9.41 7.08;
        000.2700 19.75 9.10 7.08;
        000.2800 19.75 8.80 7.08;
        000.2900 19.76 8.46 7.08;
        000.3000 19.76 8.18 7.08;
        000.3100 19.76 7.95 7.08;
        000.3200 19.77 7.63 7.08;
        000.3300 19.77 7.42 7.08;
        000.3400 19.78 7.23 7.08;
        000.3500 19.79 6.96 7.08;
        000.3600 19.78 6.78 7.08;
        000.3700 19.79 6.55 7.08;
        000.3800 19.80 6.39 7.08;
        000.3900 19.80 6.21 7.08;
        000.4000 19.80 6.10 7.08;
        000.4100 19.80 5.88 7.08;
        000.4200 19.81 5.77 7.08;
        000.4300 19.81 5.65 7.08;
        000.4400 19.81 5.48 7.08;
        000.4500 19.82 5.33 7.08;
        000.4600 19.82 5.19 7.08;
        000.4700 19.81 5.04 7.08;
        000.4800 19.82 4.96 7.08;
        000.4900 19.83 4.88 7.08;
        000.5000 19.83 4.76 7.08;
        000.5100 19.84 4.64 7.08;
        000.5200 19.84 4.54 7.08;
        000.5300 19.84 4.42 7.08;
        000.5400 19.84 4.28 7.08;
        000.5500 19.84 4.22 7.08;
        000.5600 19.84 4.12 7.08;
        000.5700 19.84 4.06 7.08;
        000.5800 19.85 3.98 7.08;
        000.5900 19.85 3.86 7.08;
        000.6000 19.85 3.71 7.08;
        000.6100 19.86 3.66 7.08;
        000.6200 19.86 3.63 7.08;
        000.6300 19.85 3.53 7.08;
        000.6400 19.86 3.47 7.08;
        000.6500 19.86 3.38 7.08;
        000.6600 19.87 3.26 7.08;
        000.6700 19.87 3.21 7.08;
        000.6800 19.87 3.16 7.08;
        000.6900 19.87 3.11 7.08;
        000.7000 19.88 3.03 7.08;
        000.7100 19.88 2.95 7.08;
        000.7200 19.88 2.91 7.08;
        000.7300 19.88 2.86 7.08;
        000.7400 19.88 2.80 7.08;
        000.7500 19.88 2.72 7.08;
        000.7600 19.89 2.63 7.08;
        000.7700 19.89 2.58 7.08;
        000.7800 19.89 2.54 7.08;
        000.7900 19.89 2.52 7.08;
        000.8000 19.89 2.46 7.08;
        000.8100 19.90 2.38 7.08;
        000.8200 19.90 2.33 7.08;
        000.8300 19.90 2.29 7.08;
        000.8400 19.90 2.21 7.08;
        000.8500 19.90 2.12 7.08;
        000.8600 19.91 2.08 7.08;
        000.8700 19.91 2.04 7.08;
        000.8800 19.91 2.02 7.08;
        000.8900 19.90 2.00 7.08;
        000.9000 19.91 1.94 7.08;
        000.9100 19.91 1.89 7.08;
        000.9200 19.91 1.83 7.08;
        000.9300 19.92 1.78 7.08;
        000.9400 19.92 1.74 7.08;
        000.9500 19.92 1.70 7.08;
        000.9600 19.92 1.65 7.08;
        000.9700 19.92 1.59 7.08;
        000.9800 19.92 1.54 7.08;
        000.9900 19.92 1.49 7.08;
        001.0000 19.92 1.44 7.08;
        001.1000 19.93 1.07 7.08;
        001.2000 19.94 0.69 7.08;
        001.3000 19.95 0.35 7.08;
        001.4000 19.96 0.05 7.08;
        001.5000 19.96 -0.24 7.08;
        001.6000 19.98 -0.56 7.08;
        001.7000 19.98 -0.83 7.08;
        001.8000 19.99 -1.13 7.08;
        001.9000 19.99 -1.40 7.08;
        002.0000 20.00 -1.70 7.08;
        002.1000 19.99 -1.96 7.08;
        002.2000 19.99 -2.22 7.08;
        002.3000 19.99 -2.41 7.08;
        002.4000 19.99 -2.62 7.08;
        002.5000 19.99 -2.85 7.08;
        002.6000 20.00 -3.06 7.09;
        002.7000 19.99 -3.28 7.09;
        002.8000 20.00 -3.54 7.09;
        002.9000 19.99 -3.70 7.09;
        003.0000 19.98 -3.89 7.09;
        003.1000 19.98 -4.04 7.09;
        003.2000 19.98 -4.30 7.09;
        003.3000 19.97 -4.49 7.09;
        003.4000 19.98 -4.72 7.09;
        003.5000 19.99 -4.92 7.09;
        003.6000 19.98 -5.09 7.09;
        003.7000 19.98 -5.24 7.09;
        003.8000 19.98 -5.52 7.09;
        003.9000 19.97 -5.63 7.09;
        004.0000 19.97 -5.84 7.09;
        004.1000 19.97 -6.01 7.09;
        004.2000 19.98 -6.19 7.09;
        004.3000 19.98 -6.38 7.09;
        004.4000 19.98 -6.58 7.09;
        004.5000 19.97 -6.73 7.09;
        004.6000 19.97 -6.86 7.09;
        004.7000 19.97 -7.07 7.09;
        004.8000 19.98 -7.24 7.09;
        004.9000 19.97 -7.46 7.09;
        005.0000 19.97 -7.62 7.09;
        005.1000 19.97 -7.82 7.09;
        005.2000 19.98 -7.98 7.09;
        005.3000 19.98 -8.14 7.09;
        005.4000 19.97 -8.32 7.09;
        005.5000 19.97 -8.48 7.09;
        005.6000 19.97 -8.72 7.09;
        005.7000 19.97 -8.86 7.09;
        005.8000 19.98 -9.00 7.09;
        005.9000 19.97 -9.20 7.09;
        006.0000 19.97 -9.39 7.09;
        006.1000 19.97 -9.54 7.09;
        006.2000 19.97 -9.71 7.09;
        006.3000 19.96 -9.93 7.09;
        006.4000 19.96 -10.09 7.09;
        006.5000 19.97 -10.24 7.09;
        006.6000 19.97 -10.39 7.09;
        006.7000 19.97 -10.59 7.09;
        006.8000 19.96 -10.77 7.09;
        006.9000 19.96 -10.92 7.10;
        007.0000 19.96 -11.10 7.10;
        007.1000 19.97 -11.27 7.10;
        007.2000 19.96 -11.45 7.10;
        007.3000 19.96 -11.63 7.10;
        007.4000 19.96 -11.80 7.10;
        007.5000 19.95 -11.95 7.10;
        007.6000 19.95 -12.10 7.10;
        007.7000 19.95 -12.29 7.10;
        007.8000 19.95 -12.47 7.10;
        007.9000 19.95 -12.64 7.10;
        008.0000 19.95 -12.80 7.10;
        008.1000 19.95 -12.96 7.10;
        008.2000 19.95 -13.14 7.10;
        008.3000 19.95 -13.33 7.10;
        008.4000 19.95 -13.48 7.10;
        008.5000 19.94 -13.63 7.10;
        008.6000 19.94 -13.77 7.10;
        008.7000 19.94 -13.90 7.10;
        008.8000 19.94 -14.07 7.10;
        008.9000 19.94 -14.25 7.10;
        009.0000 19.93 -14.44 7.10;
        009.1000 19.93 -14.62 7.10;
        009.2000 19.93 -14.80 7.10;
        009.3000 19.93 -14.98 7.10;
        009.4000 19.93 -15.14 7.10;
        009.5000 19.93 -15.29 7.10;
        009.6000 19.92 -15.43 7.10;
        009.7000 19.92 -15.59 7.10;
        009.8000 19.92 -15.74 7.10;
        009.9000 19.92 -15.91 7.10;
        010.0000 19.92 -16.07 7.10;
        011.0000 19.89 -17.71 7.11;
        012.0000 19.87 -19.30 7.11;
        013.0000 19.85 -20.88 7.11;
        014.0000 19.83 -22.44 7.12;
        015.0000 19.81 -23.99 7.12;
        016.0000 19.79 -25.44 7.12;
        017.0000 19.78 -26.98 7.13;
        018.0000 19.78 -28.41 7.13;
        019.0000 19.77 -29.91 7.13;
        020.0000 19.77 -31.37 7.14;
        021.0000 19.78 -32.92 7.14;
        022.0000 19.78 -34.46 7.15;
        023.0000 19.78 -36.01 7.15;
        024.0000 19.80 -37.62 7.16;
        025.0000 19.80 -39.20 7.16;
        026.0000 19.80 -40.81 7.17;
        027.0000 19.80 -42.39 7.17;
        028.0000 19.79 -44.07 7.18;
        029.0000 19.79 -45.69 7.18;
        030.0000 19.77 -47.33 7.19;
        031.0000 19.76 -48.99 7.19;
        032.0000 19.76 -50.60 7.20;
        033.0000 19.75 -52.23 7.20;
        034.0000 19.73 -53.85 7.21;
        035.0000 19.71 -55.47 7.21;
        036.0000 19.70 -57.10 7.22;
        037.0000 19.68 -58.73 7.23;
        038.0000 19.66 -60.40 7.23;
        039.0000 19.64 -61.96 7.24;
        040.0000 19.63 -63.62 7.25;
        041.0000 19.60 -65.18 7.25;
        042.0000 19.59 -66.76 7.26;
        043.0000 19.57 -68.34 7.27;
        044.0000 19.54 -69.94 7.27;
        045.0000 19.51 -71.57 7.28;
        046.0000 19.50 -73.16 7.29;
        047.0000 19.48 -74.71 7.29;
        048.0000 19.46 -76.29 7.30;
        049.0000 19.44 -77.84 7.31;
        050.0000 19.42 -79.41 7.32;
        051.0000 19.39 -80.99 7.32;
        052.0000 19.36 -82.56 7.33;
        053.0000 19.34 -84.15 7.34;
        054.0000 19.32 -85.74 7.35;
        055.0000 19.30 -87.31 7.36;
        056.0000 19.27 -88.85 7.36;
        057.0000 19.26 -90.41 7.37;
        058.0000 19.24 -91.97 7.38;
        059.0000 19.21 -93.55 7.39;
        060.0000 19.18 -95.07 7.40;
        061.0000 19.16 -96.68 7.41;
        062.0000 19.14 -98.30 7.42;
        063.0000 19.12 -99.87 7.43;
        064.0000 19.09 -101.42 7.44;
        065.0000 19.07 -102.98 7.45;
        066.0000 19.05 -104.55 7.46;
        067.0000 19.02 -106.13 7.46;
        068.0000 19.00 -107.71 7.47;
        069.0000 18.97 -109.29 7.48;
        070.0000 18.95 -110.89 7.49;
        071.0000 18.92 -112.49 7.50;
        072.0000 18.89 -114.08 7.52;
        073.0000 18.87 -115.66 7.53;
        074.0000 18.85 -117.22 7.54;
        075.0000 18.82 -118.82 7.55;
        076.0000 18.79 -120.42 7.56;
        077.0000 18.75 -122.03 7.57;
        078.0000 18.72 -123.63 7.58;
        079.0000 18.69 -125.21 7.59;
        080.0000 18.65 -126.79 7.60;
        081.0000 18.62 -128.36 7.61;
        082.0000 18.59 -129.98 7.62;
        083.0000 18.57 -131.62 7.64;
        084.0000 18.53 -133.19 7.65;
        085.0000 18.49 -134.74 7.66;
        086.0000 18.46 -136.38 7.67;
        087.0000 18.43 -138.03 7.68;
        088.0000 18.39 -139.64 7.70;
        089.0000 18.36 -141.24 7.71;
        090.0000 18.32 -142.81 7.72;
        091.0000 18.28 -144.38 7.73;
        092.0000 18.23 -146.00 7.75;
        093.0000 18.19 -147.62 7.76;
        094.0000 18.15 -149.22 7.77;
        095.0000 18.11 -150.82 7.78;
        096.0000 18.07 -152.43 7.80;
        097.0000 18.04 -154.06 7.81;
        098.0000 18.00 -155.68 7.82;
        099.0000 17.95 -157.25 7.84;
        100.0000 17.91 -158.82 7.85;
    ]
end
